"80ppm.spc - RawData"
"Wavelength nm."	"Abs."
220.00	2.560
221.00	2.502
222.00	2.447
223.00	2.389
224.00	2.322
225.00	2.254
226.00	2.179
227.00	2.100
228.00	2.009
229.00	1.921
230.00	1.824
231.00	1.726
232.00	1.626
233.00	1.519
234.00	1.420
235.00	1.317
236.00	1.220
237.00	1.128
238.00	1.038
239.00	0.952
240.00	0.872
241.00	0.800
242.00	0.730
243.00	0.668
244.00	0.612
245.00	0.564
246.00	0.520
247.00	0.480
248.00	0.444
249.00	0.412
250.00	0.384
251.00	0.360
252.00	0.339
253.00	0.321
254.00	0.306
255.00	0.293
256.00	0.282
257.00	0.273
258.00	0.267
259.00	0.263
260.00	0.259
261.00	0.256
262.00	0.252
263.00	0.250
264.00	0.248
265.00	0.247
266.00	0.247
267.00	0.246
268.00	0.242
269.00	0.237
270.00	0.230
271.00	0.221
272.00	0.213
273.00	0.203
274.00	0.193
275.00	0.182
276.00	0.169
277.00	0.155
278.00	0.140
279.00	0.123
280.00	0.106
281.00	0.090
282.00	0.075
283.00	0.061
284.00	0.051
285.00	0.043
286.00	0.037
287.00	0.032
288.00	0.029
289.00	0.027
290.00	0.026
291.00	0.025
292.00	0.024
293.00	0.024
294.00	0.023
295.00	0.023
296.00	0.022
297.00	0.022
298.00	0.022
299.00	0.021
300.00	0.021
301.00	0.020
302.00	0.020
303.00	0.019
304.00	0.018
305.00	0.019
306.00	0.016
307.00	0.014
308.00	0.013
309.00	0.012
310.00	0.011
311.00	0.009
312.00	0.008
313.00	0.007
314.00	0.006
315.00	0.005
316.00	0.004
317.00	0.004
318.00	0.003
319.00	0.002
320.00	0.002
321.00	0.001
322.00	0.002
323.00	0.001
324.00	0.001
325.00	0.001
326.00	0.001
327.00	0.001
328.00	0.000
329.00	0.000
330.00	-0.000
331.00	-0.001
332.00	-0.000
333.00	-0.001
334.00	-0.000
335.00	-0.001
336.00	-0.000
337.00	-0.001
338.00	-0.000
339.00	-0.000
340.00	-0.000
341.00	-0.000
342.00	-0.000
343.00	-0.001
344.00	-0.001
345.00	-0.001
346.00	-0.000
347.00	-0.000
348.00	-0.000
349.00	-0.001
350.00	-0.001
351.00	-0.001
352.00	-0.001
353.00	-0.001
354.00	-0.001
355.00	-0.001
356.00	-0.001
357.00	-0.001
358.00	-0.001
359.00	-0.001
360.00	-0.000
361.00	-0.001
362.00	-0.001
363.00	-0.001
364.00	-0.002
365.00	-0.001
366.00	-0.001
367.00	-0.001
368.00	-0.001
369.00	-0.001
370.00	-0.001
371.00	-0.001
372.00	-0.001
373.00	-0.001
374.00	-0.001
375.00	-0.001
376.00	-0.001
377.00	-0.001
378.00	-0.001
379.00	-0.001
380.00	-0.001
381.00	-0.001
382.00	-0.001
383.00	-0.001
384.00	-0.001
385.00	-0.001
386.00	-0.001
387.00	-0.001
388.00	-0.001
389.00	-0.001
390.00	-0.001
391.00	-0.001
392.00	-0.001
393.00	-0.001
394.00	-0.001
395.00	-0.001
396.00	-0.001
397.00	-0.001
398.00	-0.001
399.00	-0.001
400.00	-0.001
