"160ppm.spc - RawData"
"Wavelength nm."	"Abs."
220.00	4.491
221.00	4.491
222.00	4.491
223.00	4.491
224.00	4.491
225.00	4.491
226.00	4.491
227.00	4.491
228.00	4.491
229.00	4.192
230.00	4.192
231.00	3.893
232.00	3.717
233.00	3.543
234.00	3.294
235.00	3.092
236.00	2.872
237.00	2.630
238.00	2.404
239.00	2.180
240.00	1.972
241.00	1.784
242.00	1.606
243.00	1.450
244.00	1.311
245.00	1.189
246.00	1.083
247.00	0.987
248.00	0.905
249.00	0.833
250.00	0.770
251.00	0.717
252.00	0.675
253.00	0.638
254.00	0.607
255.00	0.583
256.00	0.562
257.00	0.547
258.00	0.538
259.00	0.532
260.00	0.529
261.00	0.526
262.00	0.525
263.00	0.525
264.00	0.528
265.00	0.533
266.00	0.538
267.00	0.542
268.00	0.542
269.00	0.539
270.00	0.533
271.00	0.525
272.00	0.515
273.00	0.503
274.00	0.490
275.00	0.473
276.00	0.451
277.00	0.426
278.00	0.398
279.00	0.366
280.00	0.332
281.00	0.300
282.00	0.268
283.00	0.238
284.00	0.212
285.00	0.187
286.00	0.164
287.00	0.144
288.00	0.125
289.00	0.109
290.00	0.095
291.00	0.083
292.00	0.074
293.00	0.065
294.00	0.059
295.00	0.054
296.00	0.049
297.00	0.046
298.00	0.043
299.00	0.040
300.00	0.038
301.00	0.036
302.00	0.034
303.00	0.032
304.00	0.031
305.00	0.031
306.00	0.027
307.00	0.025
308.00	0.022
309.00	0.020
310.00	0.017
311.00	0.015
312.00	0.013
313.00	0.011
314.00	0.009
315.00	0.008
316.00	0.006
317.00	0.005
318.00	0.003
319.00	0.002
320.00	0.001
321.00	0.001
322.00	0.000
323.00	-0.001
324.00	-0.001
325.00	-0.001
326.00	-0.001
327.00	-0.002
328.00	-0.002
329.00	-0.002
330.00	-0.002
331.00	-0.003
332.00	-0.002
333.00	-0.003
334.00	-0.003
335.00	-0.003
336.00	-0.003
337.00	-0.003
338.00	-0.003
339.00	-0.003
340.00	-0.003
341.00	-0.004
342.00	-0.004
343.00	-0.004
344.00	-0.003
345.00	-0.003
346.00	-0.003
347.00	-0.003
348.00	-0.003
349.00	-0.003
350.00	-0.003
351.00	-0.003
352.00	-0.004
353.00	-0.003
354.00	-0.004
355.00	-0.003
356.00	-0.004
357.00	-0.004
358.00	-0.004
359.00	-0.004
360.00	-0.003
361.00	-0.004
362.00	-0.004
363.00	-0.003
364.00	-0.006
365.00	-0.005
366.00	-0.005
367.00	-0.005
368.00	-0.005
369.00	-0.005
370.00	-0.005
371.00	-0.005
372.00	-0.005
373.00	-0.005
374.00	-0.005
375.00	-0.004
376.00	-0.004
377.00	-0.004
378.00	-0.004
379.00	-0.004
380.00	-0.004
381.00	-0.004
382.00	-0.004
383.00	-0.004
384.00	-0.003
385.00	-0.003
386.00	-0.004
387.00	-0.004
388.00	-0.004
389.00	-0.003
390.00	-0.003
391.00	-0.003
392.00	-0.003
393.00	-0.003
394.00	-0.003
395.00	-0.003
396.00	-0.003
397.00	-0.003
398.00	-0.003
399.00	-0.003
400.00	-0.003
